#   1 NUMBER                 Running object number                                     
#   2 XWIN_IMAGE             Windowed position estimate along x                         [pixel]
#   3 YWIN_IMAGE             Windowed position estimate along y                         [pixel]
#   4 X_WORLD                Barycenter position along world x axis                     [deg]
#   5 Y_WORLD                Barycenter position along world y axis                     [deg]
#   6 MAG_AUTO               Kron-like elliptical aperture magnitude                    [mag]
#   7 MAGERR_AUTO            RMS error for AUTO magnitude                               [mag]
#   8 FLUX_AUTO              Flux within a Kron-like elliptical aperture                [count]
#   9 FLUXERR_AUTO           RMS error for AUTO flux                                    [count]
#  10 FLUX_RADIUS            Fraction-of-light radii                                    [pixel]
#  11 FWHM_IMAGE             FWHM assuming a gaussian core                              [pixel]
#  12 BACKGROUND             Background at centroid position                            [count]
#  13 ALPHA_SKY              Right ascension of barycenter (native)                     [deg]
#  14 DELTA_SKY              Declination of barycenter (native)                         [deg]
#  15 A_IMAGE                Profile RMS along major axis                               [pixel]
#  16 B_IMAGE                Profile RMS along minor axis                               [pixel]
#  17 THETA_IMAGE            Position angle (CCW/x)                                     [deg]
         1    365.9068     10.3766   2.7275297819e+02  -1.8547164606e+01  -6.6970   0.0644     477.3261     28.30914      1.277     2.99     51.46957 272.7529782 -18.5471646     1.164     0.820  56.85
         2   1814.4770      1.0000   2.7347083200e+02  -1.7861103206e+01  99.0000  99.0000    -84.80403     13.37609    -23.738     3.45     50.14107 273.4708320 -17.8611032     1.193     0.289   0.00
         3    731.4821     19.8971   2.7294053166e+02  -1.8379866237e+01  -5.4530   0.1566     151.7709     21.89128      1.768     4.28     49.90234 272.9405317 -18.3798662     1.042     0.733  53.97
         4   1764.7400     47.4549   2.7346899112e+02  -1.7906475805e+01  -4.0683   0.4812     42.39704     18.78763      0.798     2.23     51.71794 273.4689911 -17.9064758     0.667     0.470 -76.05
         5   1319.8424     46.7322   2.7324739157e+02  -1.8115732536e+01  -4.1917   0.4407     47.49752     19.27638      1.157     2.78     50.76545 273.2473916 -18.1157325     0.792     0.344  74.56
         6     85.9251     57.7607   2.7263619384e+02  -1.8701041728e+01  -6.1481   0.0933     287.9117     24.73849      1.470     3.41     52.01272 272.6361938 -18.7010417     1.241     0.739  47.66
         7    407.0794     56.7088   2.7279657438e+02  -1.8549682538e+01  -4.6748   0.2911     74.11791     19.87016      1.253     4.64     51.08308 272.7965744 -18.5496825     1.115     0.549  63.50
         8   1646.5922     60.2544   2.7341689423e+02  -1.7968165049e+01  -4.3811   0.3747     56.55033     19.50978      1.610     4.18     50.98837 273.4168942 -17.9681650     0.909     0.549  49.98
         9   2007.7071     78.6206   2.7360514589e+02  -1.7806604628e+01  -6.0155   0.1022     254.8011     23.98972      1.139     2.04     51.72057 273.6051459 -17.8066046     0.949     0.627 -45.54
        10   1570.8584    108.4998   2.7340259638e+02  -1.8026643902e+01  -4.4496   0.4028     60.23311     22.34039      1.611     4.19     51.17558 273.4025964 -18.0266439     0.962     0.635   8.25
        11   1500.4783    129.4297   2.7337708223e+02  -1.8069257277e+01  -4.7831   0.2823      81.8912      21.2893      2.961     3.84      51.0294 273.3770822 -18.0692573     1.338     0.316  58.46
        12   1457.0727    124.3095   2.7335435899e+02  -1.8087793867e+01  -5.2207   0.1873     122.5393      21.1334      2.504     3.27     50.84655 273.3543590 -18.0877939     0.849     0.514  45.17
        13    647.9831    149.9280   2.7296312474e+02  -1.8480634974e+01  -4.7673   0.2696     80.71107     20.03538      1.363     3.33     50.99876 272.9631247 -18.4806350     0.915     0.676 -71.56
        14    211.3844    162.8545   2.7275152350e+02  -1.8692157882e+01  -4.5313   0.3547     64.93914     21.20815      1.793     4.19     51.17273 272.7515235 -18.6921579     1.144     0.437  76.72
        15    129.5536    159.7146   2.7270821374e+02  -1.8728953718e+01  -3.9307   0.5502     37.34766     18.92229      0.964     3.84     52.17685 272.7082137 -18.7289537     1.049     0.403  17.66
        16    784.3977    178.4154   2.7304540521e+02  -1.8429971222e+01  -5.4631   0.1549     153.1866     21.84646      1.209     2.75     50.97876 273.0454052 -18.4299712     0.930     0.816   0.89
        17    226.2447    202.6192   2.7277807785e+02  -1.8704768014e+01  -4.0612   0.4911     42.11899     19.04795      2.012     2.92     51.03662 272.7780778 -18.7047680     1.309     0.191 -58.28
        18    334.2841    213.4241   2.7283753521e+02  -1.8657918416e+01  -5.5645   0.1810     168.1948     28.03524      4.295     4.62     50.59966 272.8375352 -18.6579184     0.818     0.741   0.09
        19   1380.1667    215.8272   2.7336125137e+02  -1.8167198319e+01  -5.1562   0.1972     115.4733     20.96556      1.924     4.61      50.8259 273.3612514 -18.1671983     1.002     0.601 -25.43
        20   1490.5143    219.9313   2.7341812016e+02  -1.8117118387e+01  99.0000  99.0000    -5.648632     17.90825     -0.908     2.90     52.03582 273.4181202 -18.1171184     0.766     0.322 -57.01
        21   1573.9440    221.1521   2.7346017785e+02  -1.8078659109e+01  -3.5788   0.7387     27.01075     18.37358      0.608     0.93     52.35361 273.4601779 -18.0786591     0.523     0.455 -50.47
        22   1855.4239    228.6871   2.7360372510e+02  -1.7948966113e+01  -4.7601   0.2678     80.17401     19.76744      0.869     3.74     52.12624 273.6037251 -17.9489661     0.722     0.555 -59.90
        23    914.2856    237.8526   2.7313970809e+02  -1.8396932201e+01  -6.6032   0.0704     437.7913     28.38589      1.438     2.50     50.96837 273.1397081 -18.3969322     1.083     1.045  69.10
        24    816.9739    231.6204   2.7308816976e+02  -1.8439851846e+01  -5.2158   0.1887     121.9913      21.2002      1.728     2.10      50.7676 273.0881698 -18.4398518     0.695     0.637  35.17
        25    480.4392    236.5422   2.7292231370e+02  -1.8600202574e+01  -4.7563   0.2721     79.89561     20.01502      2.310     3.29     50.91631 272.9223137 -18.6002026     1.396     0.225  34.88
        26    522.9744    249.0214   2.7294970184e+02  -1.8586406263e+01  -4.7954   0.2634     82.82128     20.08797      2.685     3.14     50.80283 272.9497018 -18.5864063     0.721     0.398  88.66
        27   1399.5444    252.6927   2.7338894061e+02  -1.8175592405e+01  -5.3389   0.1706     136.6303     21.46419      2.304     3.20     50.73863 273.3889406 -18.1755924     0.792     0.511 -42.79
        28   1128.7362    270.4336   2.7326288143e+02  -1.8311409472e+01  -5.8534   0.1150     219.4554     23.24136      1.086     2.26     51.06227 273.2628814 -18.3114095     0.880     0.726 -41.10
        29    953.8650    282.6198   2.7318185900e+02  -1.8399534485e+01  -5.0285   0.2177     102.6618     20.57589      1.850     3.10     50.83662 273.1818590 -18.3995345     0.778     0.481 -57.18
        30     54.9146    289.7711   2.7273568118e+02  -1.8825557057e+01  -4.2047   0.4378     48.06917      19.3785      0.968     4.05     52.30864 272.7356812 -18.8255571     0.912     0.515  45.00
        31    516.0993    296.2007   2.7296942916e+02  -1.8611933362e+01  -4.2223   0.4312     48.85488     19.39876      1.805     3.11     51.13617 272.9694292 -18.6119334     1.001     0.282  39.55
        32    976.0607    299.6655   2.7320133578e+02  -1.8396905831e+01  -5.0275   0.2152     102.5661     20.32594      2.408     0.94     50.75974 273.2013358 -18.3969058     0.549     0.431 -46.25
        33    351.8625    309.5807   2.7289435065e+02  -1.8695488770e+01  -4.6570   0.2955     72.90976     19.83974      1.541     4.37     51.14921 272.8943506 -18.6954888     1.120     0.485  39.97
        34   1212.9866    310.3766   2.7332457129e+02  -1.8290684808e+01  -4.6820   0.2906     74.61346     19.96734      1.387     3.00      50.8717 273.3245713 -18.2906848     0.732     0.450 -17.92
        35   1161.6942    320.0692   2.7330376912e+02  -1.8319369522e+01  -5.1540   0.1968     115.2412     20.87933      1.443     3.61     50.91628 273.3037691 -18.3193695     0.930     0.668  57.67
        36    607.7914    325.8807   2.7303091065e+02  -1.8582524216e+01  -4.5118   0.3353     63.78753     19.69438      1.860     3.71     51.01095 273.0309106 -18.5825242     1.118     0.354  45.01
        37    823.5701    327.4658   2.7313889134e+02  -1.8481808877e+01  -4.9110   0.2395     92.12556     20.31824      1.617     3.32     50.71789 273.1388913 -18.4818089     0.920     0.348  43.36
        38   1094.6082    336.1334   2.7327835092e+02  -1.8358544428e+01  -4.9348   0.2359     94.16917     20.45117      1.340     2.23      50.9564 273.2783509 -18.3585444     0.736     0.496 -84.01
        39    728.5289    351.0868   2.7310300176e+02  -1.8538046229e+01  -5.1317   0.2239     112.8968     23.27293      2.288     4.33     50.64216 273.1030018 -18.5380462     1.156     0.623 -76.29
        40    437.5416    349.9160   2.7295693943e+02  -1.8674217770e+01  -4.4615   0.3499     60.89839      19.6209      1.185     4.09     52.26587 272.9569394 -18.6742178     1.009     0.473  32.81
        41    707.8218    357.2437   2.7309612517e+02  -1.8550498330e+01  -4.8139   0.2561      84.2489     19.87025      3.019     3.71     50.76535 273.0961252 -18.5504983     0.849     0.466 -14.86
        42    458.7197    371.3581   2.7297803132e+02  -1.8674363143e+01  -5.3068   0.1750     132.6483     21.37123      1.046     2.91     52.43747 272.9780313 -18.6743631     0.917     0.617  46.28
        43    754.0409    374.7430   2.7312739221e+02  -1.8537223740e+01  -4.4515   0.3529     60.33836     19.60662      1.820     3.67     50.71334 273.1273922 -18.5372237     1.101     0.353 -45.67
        44    701.6037    390.1676   2.7310934161e+02  -1.8569036793e+01  -4.9931   0.2240     99.36215     20.49555      2.140     2.46     51.05572 273.1093416 -18.5690368     0.985     0.289  90.00
        45    768.6409    392.6158   2.7314432081e+02  -1.8539267561e+01  -5.0663   0.2429     106.2927     23.77831      2.915     3.85      50.9217 273.1443208 -18.5392676     1.107     0.465  33.98
        46    833.2698    418.6083   2.7319135247e+02  -1.8520620405e+01  -5.0125   0.2965     101.1583     27.61927      3.519     4.65     51.10495 273.1913525 -18.5206204     1.023     0.601  46.97
        47    795.0718    425.7594   2.7317342686e+02  -1.8542037298e+01  -4.4417   0.3574     59.79872     19.67882      1.580     3.91     51.11756 273.1734269 -18.5420373     0.859     0.509  42.26
        48   1645.9911    443.4390   2.7360611564e+02  -1.8149175589e+01  -6.4279   0.0771     372.5451     26.45755      1.162     2.18     52.01103 273.6061156 -18.1491756     1.007     0.668 -55.17
        49    439.6892    463.9197   2.7301433752e+02  -1.8727240186e+01  -5.0806   0.2095     107.7042     20.77945      1.075     2.94     52.18364 273.0143375 -18.7272402     1.060     0.742  59.57
        50   1707.3525    459.6073   2.7364465389e+02  -1.8127823669e+01  -4.4590   0.3444     60.75982     19.27012      1.049     0.99     52.08073 273.6446539 -18.1278237     0.576     0.409 -45.00
        51   1018.1683    473.1989   2.7330815826e+02  -1.8459315638e+01  -3.3535   0.9159     21.94909     18.51093      0.710     2.95     51.59068 273.3081583 -18.4593156     0.688     0.399  -3.09
        52    627.2300    482.8402   2.7311768364e+02  -1.8647908310e+01  -4.6309   0.3020     71.17971     19.79609      1.300     3.80     52.08239 273.1176836 -18.6479083     1.004     0.503  71.96
        53   1831.3228    483.9066   2.7371827254e+02  -1.8080838916e+01  -4.4946   0.3417     62.78131     19.75445      0.946     3.05     51.97097 273.7182725 -18.0808389     0.769     0.412 -68.44
        54    602.3780    494.0059   2.7311067945e+02  -1.8664785706e+01  -3.9372   0.5496     37.57439     19.01725      1.027     4.59     52.10676 273.1106795 -18.6647857     1.073     0.556  65.96
        55   1198.0339    501.5158   2.7341185646e+02  -1.8387868795e+01  -6.7651   0.0615      508.202     28.79075      1.111     2.27     51.87352 273.4118565 -18.3878688     0.947     0.826 -65.29
        56    243.0089    519.8587   2.7294362908e+02  -1.8845991401e+01  -3.7359   0.6527     31.21458     18.75953      0.859     2.86     52.17818 272.9436291 -18.8459914     0.782     0.308  32.57
        57    412.7617    533.9458   2.7303575146e+02  -1.8772901974e+01  -4.5246   0.3303     64.54343     19.62776      1.267     4.65     52.16863 273.0357515 -18.7729020     1.222     0.502  45.62
        58   1130.8231    531.9172   2.7339358248e+02  -1.8434005303e+01  -4.8421   0.2534     86.46741     20.17852      1.371     3.84      51.3997 273.3935825 -18.4340053     0.801     0.528 -59.95
        59    823.6431    543.2236   2.7324583425e+02  -1.8584173788e+01  -4.5910   0.3082     68.61112     19.47278      0.931     2.37     52.26833 273.2458343 -18.5841738     0.760     0.537  38.45
        60   1340.2167    549.0565   2.7350633934e+02  -1.8343257812e+01  -4.2189   0.4305     48.70386     19.30764      0.996     2.51     52.16208 273.5063393 -18.3432578     0.713     0.662 -85.48
        61   1524.1089    583.7799   2.7361504448e+02  -1.8272918754e+01  -5.8965   0.1114     228.3405     23.43173      1.395     2.45     51.84369 273.6150445 -18.2729188     1.119     0.727 -35.81
        62    260.7042    591.1091   2.7298801414e+02  -1.8871429899e+01  -5.4984   0.1502     158.2631     21.88535      1.276     4.48     52.28548 272.9880141 -18.8714299     1.269     0.617  30.75
        63   1116.9299    614.0246   2.7342724053e+02  -1.8479469434e+01  -3.1144   1.1399     17.61072     18.48491      0.448     2.64      51.9349 273.4272405 -18.4794694     0.833     0.636 -73.08
        64   1889.1760    616.7070   2.7381283067e+02  -1.8116221686e+01  -5.0072   0.2215     100.6652     20.52731      2.553     2.09     51.87008 273.8128307 -18.1162217     0.756     0.456 -59.85
        65   1144.7290    619.8338   2.7344407093e+02  -1.8468868324e+01  -5.2843   0.1774     129.9306     21.22819      1.010     2.32      52.0448 273.4440709 -18.4688683     0.768     0.646 -55.34
        66   1417.0745    638.4304   2.7358891320e+02  -1.8349175121e+01  -5.3886   0.1647     143.0408     21.69096      1.202     2.95     52.05414 273.5889132 -18.3491751     1.117     0.547 -62.32
        67   1658.4680    636.6121   2.7370805696e+02  -1.8234560083e+01  -4.3510   0.3844     55.00322     19.47009      1.400     3.75     51.92181 273.7080570 -18.2345601     0.943     0.428 -45.58
        68   1103.8786    656.4680   2.7344208439e+02  -1.8505566682e+01  -3.6173   0.7281     27.98562     18.76344      0.882     3.80     51.31145 273.4420844 -18.5055667     0.651     0.636 -76.62
        69   1104.9841    679.4694   2.7345366513e+02  -1.8518129460e+01  -4.8780   0.2983     89.37215     24.54589      2.920     4.52     51.18117 273.4536651 -18.5181295     1.166     0.497 -32.60
        70   2004.1858    679.1282   2.7390055533e+02  -1.8090260653e+01  -4.9991   0.2229     99.91365       20.509      2.157     3.75       51.875 273.9005553 -18.0902607     0.914     0.442  44.05
        71   1457.7350    683.0610   2.7363148519e+02  -1.8351277647e+01  -4.4363   0.3495     59.49835     19.14942      1.315     4.23     52.04353 273.6314852 -18.3512776     1.163     0.439 -45.72
        72    639.6494    692.2186   2.7322774523e+02  -1.8741043292e+01  -4.6613   0.2957     73.19876     19.93188      1.043     3.00     52.19122 273.2277452 -18.7410433     0.996     0.601  58.50
        73   1130.3735    708.3084   2.7348130358e+02  -1.8517720214e+01  -3.0397   1.2780     16.43986     19.34631      0.860     4.47     51.17434 273.4813036 -18.5177202     1.158     0.491  85.70
        74   1691.4586    706.7154   2.7375925064e+02  -1.8251968026e+01  -4.7004   0.2862     75.88521     19.99916      1.150     3.68     52.01353 273.7592506 -18.2519680     0.790     0.507 -45.32
        75    406.7500    715.9978   2.7312332968e+02  -1.8861883482e+01  -6.1577   0.0929      290.456     24.85786      1.399     4.33     52.26583 273.1233297 -18.8618835     1.765     0.578  35.83
        76   1116.8839    724.5652   2.7348165246e+02  -1.8531496337e+01  -4.6688   0.2988     73.71104     20.28043      1.175     4.12     51.40273 273.4816525 -18.5314963     1.060     0.611  37.14
        77     26.8025    728.0976   2.7293835678e+02  -1.9046372009e+01  -5.2251   0.1866     123.0387     21.14521      1.287     5.00     52.40776 272.9383568 -19.0463720     1.393     0.614  36.36
        78    101.0695   1014.6419   2.7311797058e+02  -1.9147070337e+01  -5.8579   0.1209     220.3798     24.53264      1.681     5.57     52.07249 273.1179706 -19.1470703     1.675     0.700  29.97
        79   1508.6869   2032.1202   2.7432839253e+02  -1.8961799726e+01  -4.8846   0.2458     89.91279     20.34684      2.020     2.88     51.78693 274.3283925 -18.9617997     0.804     0.304  58.71
        80   1912.7310   2014.3827   2.7452061476e+02  -1.8761998668e+01  -6.9151   0.0559     583.4935     30.01371      1.324     2.94     51.69983 274.5206148 -18.7619987     1.105     0.766 -69.60
        81   1204.1198   2016.0854   2.7416937972e+02  -1.9098498786e+01  99.0000  99.0000    -7.731167      17.3335      0.000     1.15     52.29902 274.1693797 -19.0984988     0.531     0.466 -44.99
        82   1321.8860   2006.6936   2.7422293964e+02  -1.9038237901e+01  -4.9499   0.2311     95.49151       20.318      1.371     3.45      51.9647 274.2229396 -19.0382379     0.832     0.662 -83.84
        83   1822.9200   2001.3770   2.7446951839e+02  -1.8798398180e+01  -7.7896   0.0339     1305.694     40.74503      1.442     4.30     51.73976 274.4695184 -18.7983982     1.303     0.837 -56.29
        84   1193.1988   1999.5673   2.7415535493e+02  -1.9095904856e+01  -4.9853   0.2263     98.65724     20.56061      0.975     2.01     52.09838 274.1553549 -19.0959049     0.781     0.660 -84.68
        85   1841.8284   1988.5189   2.7447250004e+02  -1.8783567920e+01  -5.5896   0.1405     172.1224     22.27563      1.766     3.38     51.68397 274.4725000 -18.7835679     1.204     0.551 -71.18
        86   1311.0699   1982.6750   2.7420547086e+02  -1.9032151577e+01  -4.5746   0.3166     67.58202     19.70501      1.655     2.90     51.91544 274.2054709 -19.0321516     0.762     0.323 -33.09
        87    511.4062   1977.4460   2.7380350914e+02  -1.9407749518e+01  -4.9073   0.2402      91.8145     20.31059      1.510     4.33     51.90276 273.8035091 -19.4077495     1.286     0.415  27.55
        88    307.8936   1965.6719   2.7369577908e+02  -1.9498319036e+01  -4.1440   0.4593     45.45647     19.22336      0.845     2.98     52.21505 273.6957791 -19.4983190     0.946     0.700  48.30
        89   1419.8441   1957.3372   2.7424709268e+02  -1.8968721270e+01  -7.4698   0.0402     972.5468     36.00872      1.274     2.46      51.9315 274.2470927 -18.9687213     1.100     0.804 -53.77
        90    864.6229   1959.3716   2.7397111445e+02  -1.9232392808e+01  -5.0064   0.2225     100.5953     20.60768      1.254     3.21     51.99108 273.9711144 -19.2323928     0.858     0.729  27.11
        91    469.7210   1951.3225   2.7376977470e+02  -1.9415067422e+01  -4.8664   0.2484     88.42143     20.22688      2.128     3.13     51.97131 273.7697747 -19.4150674     0.691     0.412  88.26
